Data File Name,mSp_scATAC_High Sensitivity DNA Assay_DEDAE00427_2018-02-21_18-47-26.xad
Data File Path,C:\Users\AgilentP302\Documents\Xi\2018-02-21
Date Created,21 February 2018 18:47:25
Date Last Modified,21 February 2018 19:20:12
Version Created,B.02.09.SI725
Version Last Modified,B.02.09.SI725
 
Assay Name,High Sensitivity DNA
Assay Path,C:\Program Files (x86)\Agilent\2100 bioanalyzer\2100 expert\assays\dsDNA
Assay Title,High Sensitivity DNA Assay
Assay Version,1.03
 
Number of Samples Run,8
 
Sample Name,N1_1_in_5
Number of Events,2121
 
Time,Value
32,-0.2870483
32.05,-0.2870483
32.1,-0.2870483
32.15,-0.2870483
32.2,-0.2870483
32.25,-0.2870483
32.3,-0.2485908
32.35,-9.701552E-02
32.4,-5.653151E-03
32.45,5.292863E-03
32.5,-0.0239939
32.55,-6.603728E-02
32.6,-0.1866231
32.65,-9.167097E-02
32.7,-4.433325E-03
32.75,9.401409E-02
32.8,0.1106669
32.85,3.266647E-02
32.9,6.560061E-02
32.95,0.1706993
33,0.2271118
33.05,7.075472E-02
33.1,-6.818565E-03
33.15,-4.375838E-02
33.2,5.274553E-02
33.25,8.901424E-02
33.3,1.300006E-02
33.35,-0.1762492
33.4,-0.1529935
33.45,-0.1031035
33.5,-9.462891E-02
33.55,8.746558E-03
33.6,-5.187748E-03
33.65,-9.767853E-02
33.7,-0.2638394
33.75,-0.3998843
33.8,-0.4642252
33.85,-0.3588721
33.9,-0.1214319
33.95,-5.164652E-02
34,6.286497E-03
34.05,-4.223353E-02
34.1,2.820077E-02
34.15,0.1244403
34.2,0.1464403
34.25,8.512842E-02
34.3,-0.1375545
34.35,-0.3360674
34.4,-0.4398442
34.45,-0.3204476
34.5,-5.312531E-02
34.55,3.348796E-02
34.6,-3.850864E-02
34.65,-0.2241554
34.7,-0.4327322
34.75,-0.5505142
34.8,-0.5436005
34.85,-0.4960395
34.9,-0.4444456
34.95,-0.2533886
35,-0.191449
35.05,-0.2384314
35.1,-0.3069264
35.15,-0.4187429
35.2,-0.4107242
35.25,-0.3899688
35.3,-0.2215201
35.35,-0.1639813
35.4,-0.2246199
35.45,-0.415783
35.5,-0.5334702
35.55,-0.6141229
35.6,-0.6553872
35.65,-0.5171651
35.7,-0.356973
35.75,-0.4408732
35.8,-0.4612753
35.85,-0.4832933
35.9,-0.4720922
35.95,-0.4639016
36,-0.4106523
36.05,-0.325816
36.1,-0.3377888
36.15,-0.3195738
36.2,-0.3449052
36.25,-0.2948987
36.3,-0.4071588
36.35,-0.3683915
36.4,-0.2451443
36.45,-0.1293156
36.5,-3.676722E-02
36.55,-2.053817E-02
36.6,-0.1696459
36.65,-0.4071407
36.7,-0.5022866
36.75,-0.6919219
36.8,-0.6817275
36.85,-0.6858907
36.9,-0.7056257
36.95,-0.6913895
37,-0.6861444
37.05,-0.7086312
37.1,-0.6338336
37.15,-0.4376948
37.2,-0.3779235
37.25,-0.3582873
37.3,-0.4745804
37.35,-0.593127
37.4,-0.5609536
37.45,-0.4511107
37.5,-0.4641395
37.55,-0.4918619
37.6,-0.4330891
37.65,-0.334672
37.7,-0.2594206
37.75,-0.3136254
37.8,-0.4837061
37.85,-0.4759458
37.9,-0.480334
37.95,-0.3606557
38,-0.1488647
38.05,-0.1485468
38.1,-0.3015884
38.15,-0.3378002
38.2,-0.210318
38.25,-0.2815771
38.3,-0.1895982
38.35,-0.1243915
38.4,-0.2365834
38.45,-0.4546352
38.5,-0.5791972
38.55,-0.5579346
38.6,-0.5667769
38.65,-0.6446788
38.7,-0.6125453
38.75,-0.559132
38.8,-0.6209881
38.85,-0.6675746
38.9,-0.5839026
38.95,-0.5614172
39,-0.4954051
39.05,-0.3497032
39.1,-0.2645789
39.15,-0.2907904
39.2,-0.4600585
39.25,-0.4597689
39.3,-0.3875855
39.35,-0.3265201
39.4,-0.3500803
39.45,-0.4036685
39.5,-0.5699275
39.55,-0.7337765
39.6,-0.6686303
39.65,-0.5545903
39.7,-0.4602731
39.75,-0.5300949
39.8,-0.619121
39.85,-0.6782247
39.9,-0.7824745
39.95,-0.7952812
40,-0.772153
40.05,-0.8793407
40.1,-0.907581
40.15,-0.769039
40.2,-0.6362236
40.25,-0.5082092
40.3,-0.2820525
40.35,-0.168761
40.4,-0.2699276
40.45,-0.4416264
40.5,-0.5437843
40.55,-0.5910226
40.6,-0.6218113
40.65,-0.6143695
40.7,-0.7788681
40.75,-0.7726732
40.8,-0.8009285
40.85,-0.7181081
40.9,-0.606436
40.95,-0.4672366
41,-0.4516897
41.05,-0.3808782
41.1,-0.3050142
41.15,-0.5930469
41.2,-0.6216268
41.25,-0.405227
41.3,-0.249667
41.35,-0.3504311
41.4,-0.4228804
41.45,-0.6237285
41.5,-0.8393402
41.55,-0.8014714
41.6,-0.7152706
41.65,-0.6870134
41.7,-0.7566538
41.75,-0.6585323
41.8,-0.5366725
41.85,-0.3431545
41.9,-0.2424276
41.95,-0.2044046
42,-0.3800856
42.05,-0.6188209
42.1,-0.6419078
42.15,-0.4772853
42.2,-0.2998799
42.25,-0.4119318
42.3,-0.3149946
42.35,-0.3794283
42.4,-0.3160024
42.45,7.319301E-02
42.5,0.7901666
42.55,2.097608
42.6,4.97806
42.65,10.91104
42.7,21.74836
42.75,38.36145
42.8,60.01269
42.85,83.96697
42.9,105.4188
42.95,119.1059
43,121.7759
43.05,111.1785
43.1,91.42266
43.15,67.41584
43.2,44.65166
43.25,26.26204
43.3,13.53705
43.35,6.292277
43.4,2.578974
43.45,0.8770919
43.5,0.1767005
43.55,5.636168E-02
43.6,-6.776124E-02
43.65,-0.1564022
43.7,-3.311595E-02
43.75,-0.1955574
43.8,-0.2353291
43.85,-0.3369971
43.9,-0.3656033
43.95,-0.2573552
44,-0.1499888
44.05,-0.22588
44.1,-0.2984693
44.15,-0.2565255
44.2,-0.3111064
44.25,-0.195173
44.3,-5.368853E-02
44.35,-1.811008E-02
44.4,-4.946245E-02
44.45,-5.470504E-02
44.5,2.512046E-02
44.55,9.254663E-02
44.6,5.035252E-03
44.65,-4.432942E-02
44.7,-0.1342105
44.75,-0.1731282
44.8,-6.459665E-02
44.85,0.2126586
44.9,0.0483959
44.95,-0.2515828
45,-0.3600582
45.05,-0.3045002
45.1,-0.1446811
45.15,2.884716E-02
45.2,7.211876E-03
45.25,-0.1454843
45.3,-0.2755887
45.35,-7.889962E-05
45.4,0.2111082
45.45,0.1560172
45.5,3.608704E-02
45.55,-0.1369549
45.6,-0.2587838
45.65,-0.4750968
45.7,-0.3531033
45.75,-0.2315408
45.8,-0.1320229
45.85,-3.642904E-02
45.9,-2.185948E-02
45.95,-9.441639E-02
46,-0.1763212
46.05,-0.1278569
46.1,-0.1042224
46.15,-0.2105527
46.2,-0.2682044
46.25,-0.0479363
46.3,6.084521E-02
46.35,8.753757E-02
46.4,-4.054343E-02
46.45,-5.784449E-02
46.5,-0.1357331
46.55,-0.2417225
46.6,-0.1692505
46.65,-0.1504531
46.7,-9.171941E-02
46.75,-0.3524953
46.8,-0.5166051
46.85,-0.6401252
46.9,-0.5118061
46.95,-0.2758714
47,-5.110513E-02
47.05,0.1218104
47.1,-8.634281E-02
47.15,-0.3086554
47.2,-0.456523
47.25,-0.5477419
47.3,-0.5654181
47.35,-0.4831441
47.4,-0.4573366
47.45,-0.5618678
47.5,-0.5957271
47.55,-0.4369099
47.6,-0.3851011
47.65,-0.4282829
47.7,-0.4313862
47.75,-0.5040954
47.8,-0.6315533
47.85,-0.6085714
47.9,-0.5431383
47.95,-0.6146424
48,-0.6057497
48.05,-0.4894147
48.1,-0.5884165
48.15,-0.5815414
48.2,-0.5100563
48.25,-0.5135745
48.3,-0.4043302
48.35,-0.426578
48.4,-0.4809819
48.45,-0.5384393
48.5,-0.4223125
48.55,-0.3650991
48.6,-0.3556697
48.65,-0.4043095
48.7,-0.545247
48.75,-0.478502
48.8,-0.3849097
48.85,-0.2907704
48.9,-0.3966294
48.95,-0.3508384
49,-0.2354822
49.05,-0.1993205
49.1,2.927611E-02
49.15,0.0635039
49.2,6.086867E-02
49.25,-3.792069E-02
49.3,-4.324677E-02
49.35,-0.1570665
49.4,-0.2062015
49.45,-2.739135E-02
49.5,5.107477E-02
49.55,0.192507
49.6,0.2439044
49.65,0.1911917
49.7,0.4144925
49.75,0.5751604
49.8,0.9329275
49.85,1.078726
49.9,1.322778
49.95,1.635031
50,1.940239
50.05,2.427202
50.1,2.896917
50.15,3.502553
50.2,4.001924
50.25,4.525823
50.3,4.877557
50.35,5.018699
50.4,4.889319
50.45,4.575107
50.5,4.097229
50.55,3.692678
50.6,3.372012
50.65,3.071737
50.7,2.876393
50.75,2.704494
50.8,2.51014
50.85,2.363007
50.9,2.4079
50.95,2.338352
51,2.257528
51.05,2.23496
51.1,2.237428
51.15,2.188078
51.2,2.337764
51.25,2.540273
51.3,2.739779
51.35,2.999239
51.4,3.457503
51.45,4.058018
51.5,4.511922
51.55,4.95342
51.6,5.205637
51.65,5.523192
51.7,6.007639
51.75,6.786978
51.8,7.429849
51.85,7.985661
51.9,8.32905
51.95,9.036946
52,10.07383
52.05,11.59007
52.1,13.55103
52.15,15.78383
52.2,18.29936
52.25,20.5712
52.3,22.50505
52.35,24.18666
52.4,25.4594
52.45,26.0083
52.5,25.63504
52.55,24.69995
52.6,23.52533
52.65,22.74925
52.7,22.3307
52.75,21.7643
52.8,20.8088
52.85,19.43533
52.9,17.95395
52.95,16.00155
53,13.85969
53.05,11.256
53.1,8.96406
53.15,6.751127
53.2,5.022744
53.25,3.886881
53.3,2.993337
53.35,2.613578
53.4,2.201051
53.45,2.025208
53.5,1.684995
53.55,1.531676
53.6,1.464171
53.65,1.406086
53.7,1.497619
53.75,1.464231
53.8,1.378035
53.85,1.12884
53.9,0.9406371
53.95,0.7862054
54,0.7631153
54.05,0.675934
54.1,0.5607795
54.15,0.4615486
54.2,0.3929153
54.25,0.3444036
54.3,0.2847606
54.35,0.2943099
54.4,0.3223356
54.45,0.3498206
54.5,0.3587693
54.55,0.2050487
54.6,4.462545E-02
54.65,-5.549681E-02
54.7,-8.346236E-02
54.75,-0.1419147
54.8,-0.1961951
54.85,-0.1602232
54.9,2.432861E-02
54.95,0.1316256
55,0.1064348
55.05,5.182122E-04
55.1,-5.846478E-02
55.15,-1.691924E-02
55.2,0.1827036
55.25,0.2504334
55.3,0.1889072
55.35,0.1232459
55.4,-9.519669E-03
55.45,-0.1830103
55.5,-0.27007
55.55,-0.184305
55.6,-0.1310389
55.65,-0.1487872
55.7,-0.2579309
55.75,-0.3672346
55.8,-0.3415235
55.85,-0.2256502
55.9,-0.1709513
55.95,-4.368095E-02
56,7.750484E-02
56.05,2.565576E-02
56.1,-0.1971959
56.15,-0.2282695
56.2,-0.1358695
56.25,-4.085252E-02
56.3,0.2175822
56.35,0.3076894
56.4,7.485593E-02
56.45,0.1454536
56.5,0.4044778
56.55,0.3116845
56.6,6.485772E-02
56.65,-5.420019E-02
56.7,4.896061E-02
56.75,0.137173
56.8,0.3542817
56.85,0.4839471
56.9,0.4019043
56.95,0.4845999
57,0.5974758
57.05,0.7485571
57.1,0.9057142
57.15,1.209888
57.2,1.458129
57.25,1.584406
57.3,1.687384
57.35,1.741725
57.4,1.968463
57.45,2.072952
57.5,2.191684
57.55,2.350842
57.6,2.535291
57.65,2.432772
57.7,2.445876
57.75,2.858791
57.8,3.091093
57.85,3.484963
57.9,3.849967
57.95,4.112697
58,4.561792
58.05,5.069088
58.1,5.548006
58.15,5.744756
58.2,6.117798
58.25,7.112977
58.3,8.410295
58.35,9.659581
58.4,10.74209
58.45,11.96043
58.5,13.3128
58.55,15.03683
58.6,16.94489
58.65,19.06046
58.7,21.52349
58.75,24.35946
58.8,27.33504
58.85,30.45099
58.9,33.95458
58.95,37.8239
59,42.01609
59.05,45.93093
59.1,49.8132
59.15,54.12017
59.2,58.77346
59.25,64.16333
59.3,70.17941
59.35,76.87141
59.4,83.99838
59.45,91.9826
59.5,100.3988
59.55,108.1955
59.6,116.2769
59.65,124.4989
59.7,132.618
59.75,140.1688
59.8,147.5304
59.85,153.739
59.9,159.2411
59.95,164.2192
60,168.1475
60.05,171.9908
60.1,175.9819
60.15,180.4801
60.2,184.672
60.25,188.3405
60.3,191.4979
60.35,194.4187
60.4,198.3403
60.45,202.426
60.5,207.0632
60.55,211.2733
60.6,214.9786
60.65,218.381
60.7,220.8146
60.75,223.2148
60.8,224.9661
60.85,226.0629
60.9,226.0314
60.95,224.542
61,223.3859
61.05,222.554
61.1,222.216
61.15,222.3883
61.2,222.314
61.25,222.4709
61.3,222.8221
61.35,223.5285
61.4,224.2591
61.45,225.4906
61.5,225.9746
61.55,225.8605
61.6,225.8343
61.65,224.8524
61.7,223.923
61.75,223.5748
61.8,222.5606
61.85,220.9297
61.9,218.95
61.95,216.8951
62,215.6403
62.05,215.1871
62.1,213.9993
62.15,212.508
62.2,211.2794
62.25,209.9063
62.3,208.4001
62.35,207.6203
62.4,207.0952
62.45,207.3287
62.5,208.1509
62.55,208.7974
62.6,208.4023
62.65,206.2835
62.7,203.6761
62.75,201.0223
62.8,199.0747
62.85,196.9221
62.9,194.4557
62.95,191.6911
63,189.5554
63.05,188.639
63.1,187.9956
63.15,186.5768
63.2,184.7874
63.25,183.5076
63.3,183.4039
63.35,183.8688
63.4,183.6618
63.45,181.7199
63.5,179.0615
63.55,177.1788
63.6,175.5117
63.65,173.7626
63.7,171.4942
63.75,169.4151
63.8,166.9123
63.85,164.6021
63.9,162.5447
63.95,160.5033
64,158.5514
64.05,157.0769
64.1,156.6432
64.15,155.7769
64.2,154.7714
64.25,153.4412
64.3,152.3345
64.35,151.0533
64.4,149.6272
64.45,148.1892
64.5,146.1791
64.55,143.8068
64.6,141.6579
64.65,140.2161
64.7,139.3512
64.75,138.7283
64.8,137.7037
64.85,135.2576
64.9,132.5493
64.95,130.823
65,129.6304
65.05,128.7236
65.1,127.459
65.15,125.7377
65.2,124.5754
65.25,124.0853
65.3,123.2266
65.35,122.1355
65.4,121.4734
65.45,120.9935
65.5,120.1184
65.55,118.9937
65.6,117.0715
65.65,115.707
65.7,115.115
65.75,114.7699
65.8,113.9238
65.85,111.9813
65.9,110.0548
65.95,108.5997
66,107.6357
66.05,106.5664
66.1,105.4958
66.15,104.2959
66.2,103.4737
66.25,103.3454
66.3,103.0374
66.35,102.61
66.4,101.7221
66.45,100.3163
66.5,98.89114
66.55,97.9785
66.6,97.4212
66.65,97.17816
66.7,96.9549
66.75,95.70687
66.8,94.22195
66.85,92.90401
66.9,91.81551
66.95,91.31751
67,91.0646
67.05,91.05736
67.1,90.75137
67.15,90.00336
67.2,88.64008
67.25,87.59306
67.3,87.16543
67.35,86.94591
67.4,86.87089
67.45,86.19363
67.5,85.74279
67.55,84.81619
67.6,84.21677
67.65,84.20045
67.7,84.14302
67.75,84.0921
67.8,83.85892
67.85,83.86858
67.9,83.66139
67.95,83.1346
68,82.34993
68.05,81.2951
68.1,80.83766
68.15,81.10324
68.2,82.20802
68.25,82.76573
68.3,82.75248
68.35,82.59587
68.4,82.53362
68.45,82.53672
68.5,82.88659
68.55,83.81242
68.6,83.86282
68.65,83.78391
68.7,82.50053
68.75,81.6562
68.8,81.70222
68.85,82.90369
68.9,84.27023
68.95,85.38465
69,85.83157
69.05,85.27258
69.1,85.32078
69.15,85.9951
69.2,86.93366
69.25,87.99483
69.3,89.09365
69.35,89.437
69.4,89.46303
69.45,89.98941
69.5,91.1161
69.55,92.25729
69.6,93.31996
69.65,93.81763
69.7,94.1972
69.75,94.87849
69.8,96.18777
69.85,97.57836
69.9,98.47859
69.95,99.6091
70,100.8811
70.05,101.881
70.1,102.5456
70.15,103.7415
70.2,105.3278
70.25,107.2223
70.3,108.9659
70.35,110.891
70.4,112.4421
70.45,114.8753
70.5,117.5153
70.55,119.4368
70.6,121.275
70.65,123.7685
70.7,126.5018
70.75,129.0016
70.8,130.7713
70.85,131.5508
70.9,132.4214
70.95,134.3542
71,136.6585
71.05,138.98
71.1,141.2507
71.15,142.4726
71.2,143.8625
71.25,145.0956
71.3,147.0793
71.35,148.5137
71.4,149.7147
71.45,150.819
71.5,152.0159
71.55,153.5033
71.6,155.1851
71.65,156.7349
71.7,156.9865
71.75,157.0309
71.8,157.1329
71.85,157.2708
71.9,158.1473
71.95,159.515
72,160.0564
72.05,160.9677
72.1,161.8272
72.15,161.9008
72.2,161.217
72.25,160.8864
72.3,160.6622
72.35,161.4924
72.4,163.0863
72.45,164.1694
72.5,164.6036
72.55,164.2941
72.6,163.9554
72.65,164.921
72.7,167.4599
72.75,169.0389
72.8,170.1127
72.85,170.3298
72.9,169.501
72.95,169.7478
73,171.3461
73.05,173.3104
73.1,175.1616
73.15,176.6989
73.2,176.8955
73.25,176.3703
73.3,176.1174
73.35,176.5646
73.4,177.674
73.45,179.019
73.5,180.374
73.55,181.9917
73.6,184.0817
73.65,186.2377
73.7,187.6453
73.75,188.2384
73.8,188.6248
73.85,189.0156
73.9,189.7421
73.95,190.941
74,192.4486
74.05,194.1819
74.1,195.4952
74.15,195.5177
74.2,195.7047
74.25,196.5005
74.3,197.7986
74.35,199.3858
74.4,200.4579
74.45,200.4524
74.5,200.3316
74.55,200.2409
74.6,200.2758
74.65,201.1371
74.7,202.2459
74.75,203.1266
74.8,203.076
74.85,203.1779
74.9,202.8463
74.95,202.2747
75,202.0905
75.05,201.7342
75.1,201.8965
75.15,202.7087
75.2,203.8627
75.25,203.5424
75.3,202.9198
75.35,201.9313
75.4,201.4211
75.45,201.1762
75.5,200.5541
75.55,200.0416
75.6,200.2618
75.65,201.2926
75.7,201.2212
75.75,200.7727
75.8,199.6447
75.85,198.5804
75.9,198.435
75.95,199.2436
76,199.623
76.05,198.4307
76.1,196.5647
76.15,194.0494
76.2,191.5999
76.25,191.0921
76.3,190.7766
76.35,189.9547
76.4,190.0248
76.45,189.481
76.5,188.5978
76.55,187.9322
76.6,186.8743
76.65,184.9488
76.7,182.9739
76.75,181.7635
76.8,180.5181
76.85,179.2532
76.9,178.0106
76.95,176.3607
77,174.4774
77.05,172.5838
77.1,171.4981
77.15,170.7818
77.2,169.5131
77.25,167.905
77.3,165.6809
77.35,164.198
77.4,163.0892
77.45,162.5071
77.5,162.1634
77.55,160.564
77.6,159.2433
77.65,158.349
77.7,157.9174
77.75,157.05
77.8,156.2423
77.85,154.7349
77.9,152.9342
77.95,151.9179
78,151.0256
78.05,149.6702
78.1,148.5204
78.15,146.8364
78.2,144.6975
78.25,143.5859
78.3,142.623
78.35,141.6195
78.4,140.9049
78.45,140.721
78.5,139.4472
78.55,139.0416
78.6,138.6289
78.65,137.3647
78.7,136.8955
78.75,136.3403
78.8,135.0183
78.85,133.3732
78.9,132.6663
78.95,131.499
79,131.1992
79.05,131.2669
79.1,129.8491
79.15,128.0419
79.2,126.7173
79.25,125.882
79.3,125.2138
79.35,124.8259
79.4,124.2556
79.45,123.3351
79.5,123.2233
79.55,123.839
79.6,124.1563
79.65,124.6767
79.7,125.1082
79.75,124.6473
79.8,122.9395
79.85,121.6744
79.9,120.2558
79.95,119.3596
80,120.4935
80.05,122.0748
80.1,122.1611
80.15,122.5142
80.2,122.625
80.25,121.8315
80.3,120.9825
80.35,120.7968
80.4,120.4594
80.45,120.1185
80.5,121.406
80.55,121.9968
80.6,121.4213
80.65,120.3914
80.7,120.2677
80.75,120.6053
80.8,121.1662
80.85,122.2933
80.9,122.1862
80.95,122.0025
81,121.8958
81.05,122.139
81.1,122.2081
81.15,122.1336
81.2,121.8938
81.25,121.2969
81.3,121.7101
81.35,122.6866
81.4,123.7
81.45,124.6966
81.5,125.179
81.55,124.8828
81.6,125.0435
81.65,125.669
81.7,126.2854
81.75,126.7266
81.8,127.2354
81.85,127.6755
81.9,127.5878
81.95,128.0096
82,128.7284
82.05,130.0206
82.1,131.6831
82.15,133.4612
82.2,134.4674
82.25,134.5878
82.3,134.762
82.35,135.1826
82.4,136.2347
82.45,137.1565
82.5,138.7962
82.55,140.5725
82.6,141.5936
82.65,142.7494
82.7,143.6836
82.75,144.0429
82.8,144.5566
82.85,145.9209
82.9,146.7136
82.95,147.1869
83,148.7467
83.05,150.2694
83.1,151.3544
83.15,151.866
83.2,152.2079
83.25,152.286
83.3,153.5815
83.35,156.0382
83.4,158.3392
83.45,159.9631
83.5,160.8202
83.55,161.435
83.6,162.6078
83.65,164.3027
83.7,165.0512
83.75,165.7035
83.8,166.882
83.85,168.6684
83.9,170.6865
83.95,172.898
84,174.4672
84.05,175.0474
84.1,175.5742
84.15,176.3398
84.2,176.9656
84.25,178.3369
84.3,180.419
84.35,181.7783
84.4,181.2969
84.45,181.3584
84.5,182.4531
84.55,184.2967
84.6,186.1848
84.65,187.5179
84.7,188.2531
84.75,189.2398
84.8,190.5814
84.85,191.3463
84.9,193.2617
84.95,195.0934
85,197.0956
85.05,199.2581
85.1,200.688
85.15,200.9093
85.2,201.6933
85.25,204.2824
85.3,205.5636
85.35,205.5057
85.4,205.7833
85.45,205.9769
85.5,206.3365
85.55,206.471
85.6,207.1036
85.65,208.0204
85.7,209.9863
85.75,212.4777
85.8,214.1949
85.85,214.7626
85.9,214.5957
85.95,216.3216
86,217.607
86.05,217.0703
86.1,216.1899
86.15,216.09
86.2,216.1402
86.25,216.7096
86.3,217.9304
86.35,217.6658
86.4,216.1258
86.45,214.5423
86.5,213.2441
86.55,212.1664
86.6,212.0738
86.65,213.2811
86.7,215.1853
86.75,215.4053
86.8,213.59
86.85,211.1362
86.9,208.6365
86.95,206.4744
87,205.5749
87.05,205.9786
87.1,205.9965
87.15,204.6403
87.2,203.4235
87.25,201.72
87.3,199.5932
87.35,198.598
87.4,198.4445
87.45,197.6057
87.5,197.3577
87.55,197.0251
87.6,195.9243
87.65,194.4535
87.7,192.5304
87.75,189.9947
87.8,188.6488
87.85,189.2332
87.9,189.1054
87.95,188.4758
88,186.6748
88.05,184.237
88.1,182.1523
88.15,180.1088
88.2,178.5195
88.25,176.7184
88.3,175.5472
88.35,174.9938
88.4,175.1663
88.45,174.5581
88.5,173.1048
88.55,172.3099
88.6,170.6095
88.65,169.3098
88.7,168.7907
88.75,168.2966
88.8,166.8735
88.85,164.5827
88.9,162.466
88.95,160.822
89,160.5905
89.05,161.8263
89.1,162.6147
89.15,162.0145
89.2,161.1931
89.25,161.2553
89.3,162.0166
89.35,162.7834
89.4,163.1445
89.45,162.0998
89.5,160.9229
89.55,160.2794
89.6,160.4313
89.65,162.2876
89.7,164.5504
89.75,165.0617
89.8,164.4058
89.85,163.5704
89.9,163.8039
89.95,165.9576
90,168.0903
90.05,168.6125
90.1,168.4904
90.15,168.2753
90.2,169.0446
90.25,170.9309
90.3,171.8356
90.35,172.11
90.4,173.3062
90.45,174.818
90.5,175.5121
90.55,176.4045
90.6,177.017
90.65,177.7743
90.7,180.3863
90.75,183.1582
90.8,185.7326
90.85,187.3602
90.9,188.1471
90.95,186.8655
91,185.3508
91.05,186.1996
91.1,188.5958
91.15,192.2831
91.2,196.2291
91.25,198.2905
91.3,198.694
91.35,199.4614
91.4,200.6679
91.45,200.9055
91.5,201.5476
91.55,202.9502
91.6,203.643
91.65,204.1206
91.7,204.3422
91.75,204.5461
91.8,204.5823
91.85,205.5954
91.9,206.6699
91.95,206.1416
92,204.6023
92.05,203.9223
92.1,204.1367
92.15,203.546
92.2,202.3339
92.25,201.0671
92.3,201.3056
92.35,202.2447
92.4,202.4897
